XRay (ID 01) / Kristallwinkel θ_c	XRay (ID 01) / Impulse Imp
θ_c/°	Imp/# / s

5.5	4
6.0	8
6.5	6
7.0	11
7.5	44
8.0	80
8.5	92
9.0	114
9.5	130
10.0	152
10.5	163
11.0	191
11.5	190
12.0	203
12.5	203
13.0	208
13.5	169
14.0	190
14.5	181
15.0	206
15.5	341
