XRay (ID 01) / Kristallwinkel θ_c	XRay (ID 01) / Impulse Imp
θ_c/°	Imp/# / s

5.5	2
6.0	3
6.5	3
7.0	4
7.5	25
8.0	51
8.5	47
9.0	62
9.5	70
10.0	85
10.5	57
11.0	58
11.5	62
12.0	55
12.5	54
13.0	47
13.5	42
14.0	40
14.5	23
15.0	27
15.5	37
