XRay (ID 01) / Kristallwinkel θ_c	XRay (ID 01) / Impulse Imp
θ_c/°	Imp/# / s

5.5	1
6.0	1
6.5	4
7.0	8
7.5	25
8.0	41
8.5	59
9.0	63
9.5	57
10.0	67
10.5	59
11.0	61
11.5	47
12.0	47
12.5	49
13.0	34
13.5	28
14.0	23
14.5	27
15.0	22
15.5	37
16.0	31
16.5	16
17.0	17
17.5	20
18.0	33
18.5	45
19.0	19
19.5	14
20.0	67
20.5	103
21.0	103
21.5	908
22.0	65
22.5	56
23.0	34
23.5	34
24.0	24
24.5	27
25.0	18
25.5	9
