XRay (ID 01) / Kristallwinkel θ_c	XRay (ID 01) / Impulse Imp
θ_c/°	Imp/# / s

5.5	2
6.0	2
6.5	0
7.0	5
7.5	29
8.0	31
8.5	56
9.0	50
9.5	67
10.0	50
10.5	62
11.0	63
11.5	59
12.0	44
12.5	32
13.0	40
13.5	20
14.0	21
14.5	18
15.0	27
15.5	28
