XRay (ID 01) / Kristallwinkel θ_c	XRay (ID 01) / Impulse Imp
θ_c/°	Imp/# / s

5.5	3
6.0	1
6.5	1
7.0	7
7.5	31
8.0	44
8.5	61
9.0	57
9.5	73
10.0	58
10.5	63
11.0	51
11.5	56
12.0	47
12.5	41
13.0	36
13.5	27
14.0	21
14.5	19
15.0	26
15.5	36
16.0	22
16.5	16
17.0	16
17.5	17
18.0	31
18.5	40
19.0	17
19.5	11
20.0	12
20.5	11
21.0	12
21.5	79
22.0	51
22.5	42
23.0	40
23.5	27
24.0	24
24.5	41
25.0	11
25.5	12
