XRay (ID 01) / Kristallwinkel θ_c	XRay (ID 01) / Impulse Imp
θ_c/°	Imp/# / s

5.5	1
6.0	2
6.5	2
7.0	8
7.5	39
8.0	54
8.5	66
9.0	64
9.5	89
10.0	80
10.5	88
11.0	82
11.5	76
12.0	76
12.5	79
13.0	69
13.5	49
14.0	43
14.5	49
15.0	47
15.5	60
